#Derived Basis Spectrum set for calculating CD spectra
#spectrum_list: /home/gnagy/Documents/Gottingen/IDPs/experiments/CD_test/arom/side_Avg6/Baselines/Ar-2/MP79/CD_corr.inp
#SS_list: /home/gnagy/Documents/Gottingen/IDPs/experiments/CD_test/sets/HB_ext_MP79.inp
#Number of decomposed  spectra: 79

#Combination matrix for Structural Properties:
#Basis/        4H        3H        5H        TU        UNC       LHP       NBP       RHP       LHA       NBA       RHA       
# Helix_reg :  1.0000    0.0000    0.0000    0.0000    0.0000    0.0000    0.0000    0.0000    0.0000    0.0000    0.0000  
# Helix_irr :  0.0000    1.0000    1.0000    0.0000    0.0000    0.0000    0.0000    0.0000    0.0000    0.0000    0.0000  
# Beta_all :   0.0000    0.0000    0.0000    0.0000    0.0000    1.0000    1.0000    1.0000    1.0000    1.0000    1.0000  
# Turn :       0.0000    0.0000    0.0000    1.0000    0.0000    0.0000    0.0000    0.0000    0.0000    0.0000    0.0000  
# Other :      0.0000    0.0000    0.0000    0.0000    1.0000    0.0000    0.0000    0.0000    0.0000    0.0000    0.0000  


#|  Wavelength      Helix_reg      Helix_irr      Beta_all       Turn           Other          
#      nm        T (10^3)       T (10^3)       T (10^3)       T (10^3)       T (10^3)      
     269.0        0.1179         0.1036         0.0904         0.0750         -0.1804      
     268.0        0.3626         -1.0111         0.0553         0.0663         -0.1095      
     267.0        0.0691         0.1353         0.0882         -0.0752         -0.0088      
     266.0        -0.0980         0.6676         0.0014         -0.0585         0.0284      
     265.0        -0.1113         0.2924         -0.0219         0.0353         0.0047      
     264.0        -0.0332         -0.1080         -0.0825         0.1282         -0.0349      
     263.0        0.0147         -0.2993         -0.0225         0.1272         -0.0903      
     262.0        -0.0956         0.2442         0.1840         -0.0623         -0.0494      
     261.0        -0.2288         1.1231         0.2346         -0.2083         0.0134      
     260.0        -0.1755         1.2577         0.0355         -0.1748         0.1080      
     259.0        0.0143         0.3575         -0.1756         0.0083         0.1096      
     258.0        0.0655         0.3619         -0.3792         0.1185         0.0884      
     257.0        0.0132         0.5153         -0.4153         0.1298         0.0458      
     256.0        -0.0889         0.8960         -0.2677         0.0734         -0.0351      
     255.0        -0.2401         1.8019         -0.1908         -0.0593         -0.0269      
     254.0        -0.2071         1.7823         -0.2039         -0.1101         0.0476      
     253.0        -0.1826         1.7453         -0.1031         -0.1699         0.0558      
     252.0        -0.2940         2.0196         -0.0266         -0.2338         0.0531      
     251.0        -0.3587         1.8356         -0.0138         -0.2376         0.0888      
     250.0        -0.3625         1.4353         -0.0944         -0.1257         0.0064      
     249.0        -0.4227         1.3270         -0.1988         -0.0490         -0.0433      
     248.0        -0.4376         1.0864         -0.2447         -0.0742         -0.0729      
     247.0        -0.5290         0.9660         -0.0909         -0.1865         -0.1219      
     246.0        -0.7875         1.5016         0.1978         -0.4099         -0.1841      
     245.0        -1.1141         1.6695         0.2810         -0.4985         -0.2472      
     244.0        -1.3988         1.1970         0.2353         -0.4212         -0.3476      
     243.0        -1.8457         1.5475         0.1497         -0.4047         -0.4371      
     242.0        -2.4436         1.6462         0.0674         -0.4543         -0.4493      
     241.0        -3.0696         1.0797         0.0632         -0.5005         -0.4374      
     240.0        -3.9326         0.9367         0.2116         -0.6367         -0.4131      
     239.0        -5.1360         0.7219         0.3834         -0.7340         -0.4534      
     238.0        -6.4000         -0.3422         0.4671         -0.6722         -0.5050      
     237.0        -7.9258         -0.4771         0.6662         -0.7976         -0.5986      
     236.0        -9.5579         -1.2352         0.9984         -1.0261         -0.6474      
     235.0        -11.2632         -2.7077         1.3445         -1.2544         -0.7326      
     234.0        -13.1887         -4.3256         1.7756         -1.5626         -0.7608      
     233.0        -15.3682         -5.9942         2.1963         -1.8498         -0.9019      
     232.0        -17.7571         -7.8735         2.3562         -2.0333         -1.0172      
     231.0        -20.2592         -9.8662         2.4587         -2.1394         -1.1866      
     230.0        -22.8374         -11.6457         2.5856         -2.2666         -1.4105      
     229.0        -25.2976         -13.6443         2.4966         -2.2398         -1.6757      
     228.0        -27.6337         -15.2815         2.1879         -2.0909         -1.9973      
     227.0        -29.6744         -17.0166         1.6076         -1.8366         -2.3763      
     226.0        -31.4933         -18.3727         0.8662         -1.6182         -2.7153      
     225.0        -32.9497         -19.4207         -0.0127         -1.3320         -3.1664      
     224.0        -34.0250         -19.7748         -0.9006         -1.1624         -3.6362      
     223.0        -34.8012         -19.3272         -1.8928         -1.0184         -4.1152      
     222.0        -35.3048         -18.0889         -2.9393         -0.8906         -4.5979      
     221.0        -35.5010         -16.4312         -3.9368         -0.8327         -5.0972      
     220.0        -35.4898         -14.4213         -4.7961         -0.8744         -5.5710      
     219.0        -35.3073         -11.9281         -5.6223         -0.9454         -6.0767      
     218.0        -34.8567         -9.9420         -6.4698         -0.9693         -6.4891      
     217.0        -34.5683         -6.9462         -7.0070         -1.1443         -6.8614      
     216.0        -34.3096         -3.9040         -7.1173         -1.4514         -7.1410      
     215.0        -34.1247         -0.8539         -6.7609         -1.9017         -7.4366      
     214.0        -34.0737         1.5782         -6.0454         -2.4073         -7.6056      
     213.0        -34.2230         4.1147         -5.0511         -3.0355         -7.8205      
     212.0        -34.3861         4.8938         -3.9354         -3.5093         -8.0258      
     211.0        -34.8318         5.4339         -2.2172         -4.2188         -8.2893      
     210.0        -35.1806         5.3317         -0.1625         -5.0542         -8.5808      
     209.0        -35.0795         4.0133         2.2455         -5.8604         -9.0115      
     208.0        -34.0665         1.7098         5.0490         -6.5880         -9.5084      
     207.0        -31.7071         -0.6829         8.2727         -7.4794         -10.0712      
     206.0        -27.6664         -5.1122         11.7405         -8.1087         -10.7642      
     205.0        -22.2632         -9.8836         15.4088         -8.6937         -11.4042      
     204.0        -15.6319         -13.2023         18.5920         -9.2437         -11.8826      
     203.0        -8.0667         -15.0052         21.1278         -9.5176         -12.2113      
     202.0        0.1652         -13.4438         23.1322         -9.7670         -12.3667      
     201.0        9.1875         -8.9109         24.5003         -9.9370         -12.2693      
     200.0        19.0555         -2.7886         25.1899         -9.8651         -12.0857      
     199.0        29.4493         3.6782         25.2774         -9.2494         -11.8812      
     198.0        39.8411         10.1671         24.6689         -8.2962         -11.6053      
     197.0        49.2801         15.2751         23.5863         -7.0344         -11.3314      
     196.0        57.0328         19.0359         22.5199         -5.9266         -10.8971      
     195.0        62.7449         20.8909         20.9143         -4.6826         -10.2061      
     194.0        66.5296         20.9915         18.9663         -3.6772         -9.0606      
     193.0        68.3806         20.0237         16.4924         -2.6815         -7.5951      
     192.0        68.4697         18.1221         13.5651         -1.7769         -5.7653      
     191.0        67.0658         14.7850         10.5728         -1.1123         -3.9213      
     190.0        64.1255         12.2573         7.8257         -0.9698         -2.1330      
     189.0        59.7625         9.4680         4.8608         -0.8160         -0.5943      
     188.0        54.7456         7.2815         2.0720         -1.0394         0.6277      
     187.0        49.3868         6.3977         -0.9689         -1.4308         1.4558      
     186.0        44.0103         5.4394         -4.0453         -1.8524         2.0096      
     185.0        39.1999         3.6874         -6.8404         -2.2577         2.0642      
     184.0        34.6471         2.2680         -9.3289         -2.7218         1.6377      
     183.0        30.3593         -0.6082         -11.5877         -2.9095         0.8251      
     182.0        26.8017         -3.6291         -13.7349         -3.2551         -0.0150      
     181.0        23.6825         -5.2552         -15.8507         -3.5288         -1.0525      
     180.0        20.9456         -6.2673         -17.6967         -3.8077         -2.0834      
     179.0        18.6485         -6.9578         -19.1111         -4.1014         -3.2609      
     178.0        16.4941         -8.0047         -20.0017         -4.2799         -4.6063      

#Calibration curves for SS error estimation:
# curve     1-globular,unscaled  2-globular,rescaled  3-general,unscaled   4-general,rescaled
#RMSDj/     dSSj_mean  dSSj_SD   dSSj_mean  dSSj_SD   dSSj_mean  dSSj_SD   dSSj_mean  dSSj_SD
#   0.000     0.000     0.055      0.000     0.052      0.000     0.077      0.000     0.056 
#   0.150     0.041     0.055      0.079     0.052      0.060     0.077      0.061     0.056 
#   0.450     0.124     0.055      0.128     0.059      0.128     0.077      0.147     0.072 
#   0.750     0.137     0.053      0.153     0.066      0.154     0.075      0.176     0.077 
#   1.050     0.151     0.060      0.171     0.071      0.170     0.073      0.199     0.080 
#   1.350     0.162     0.064      0.190     0.077      0.190     0.078      0.223     0.084 
#   1.650     0.173     0.068      0.214     0.083      0.206     0.080      0.250     0.089 
#   1.950     0.186     0.071      0.240     0.088      0.226     0.084      0.277     0.093 
#   2.250     0.198     0.074      0.260     0.091      0.240     0.088      0.302     0.098 
#   2.550     0.211     0.076      0.276     0.096      0.253     0.092      0.323     0.104 
#   2.850     0.219     0.080      0.295     0.099      0.265     0.094      0.338     0.108 
#   3.150     0.226     0.083      0.320     0.105      0.276     0.096      0.349     0.110 
#   3.450     0.233     0.085      0.340     0.107      0.286     0.099      0.355     0.108 
#   3.750     0.239     0.088      0.356     0.112      0.295     0.101      0.364     0.110 
#   4.050     0.246     0.090      0.367     0.112      0.304     0.104      0.374     0.114 
#   4.350     0.253     0.092      0.375     0.111      0.309     0.106      0.382     0.115 
#   4.650     0.258     0.094      0.382     0.113      0.316     0.108      0.388     0.114 
#   4.950     0.265     0.094      0.384     0.112      0.321     0.108      0.388     0.109 
#   5.250     0.271     0.097      0.384     0.103      0.327     0.111      0.391     0.106 
#   5.550     0.277     0.098      0.388     0.095      0.330     0.111      0.398     0.108 
#   5.850     0.284     0.101      0.397     0.095      0.334     0.112      0.409     0.109 
#   6.150     0.288     0.101      0.406     0.095      0.339     0.114      0.413     0.109 
#   6.450     0.295     0.104      0.413     0.093      0.342     0.113      0.423     0.108 
#   6.750     0.300     0.107      0.421     0.092      0.345     0.116      0.428     0.108 
#   7.050     0.304     0.109      0.428     0.089      0.350     0.119      0.438     0.107 
#   7.350     0.311     0.111      0.436     0.089      0.349     0.118      0.439     0.106 
#   7.650     0.315     0.114      0.447     0.093      0.352     0.119      0.446     0.104 
#   7.950     0.320     0.116      0.456     0.092      0.358     0.121      0.452     0.105 
#   8.250     0.324     0.119      0.464     0.091      0.359     0.122      0.460     0.102 
#   8.550     0.331     0.122      0.469     0.088      0.362     0.123      0.468     0.103 
#   8.850     0.335     0.123      0.477     0.089      0.364     0.126      0.472     0.104 
#   9.150     0.340     0.128      0.486     0.087      0.365     0.127      0.489     0.099 
#   9.450     0.341     0.128      0.495     0.089      0.366     0.129      0.491     0.103 
#   9.750     0.346     0.130      0.504     0.089      0.367     0.130      0.495     0.099 
#  10.050     0.348     0.135      0.509     0.086      0.366     0.132      0.506     0.097 
#  10.350     0.350     0.136      0.515     0.087      0.369     0.132      0.523     0.103 
#  10.650     0.354     0.137      0.528     0.089      0.366     0.134      0.526     0.098 
#  10.950     0.355     0.135      0.533     0.085      0.364     0.131      0.534     0.101 
#  11.250     0.358     0.142      0.556     0.087      0.369     0.136      0.548     0.102 
#  11.550     0.360     0.144      0.562     0.086      0.364     0.132      0.547     0.105 
#  11.850     0.362     0.144      0.570     0.084      0.365     0.135      0.563     0.104 
#  12.150     0.361     0.145      0.589     0.089      0.358     0.139      0.567     0.096 
#  12.450     0.363     0.147      0.602     0.081      0.360     0.137      0.587     0.107 
#  12.750     0.368     0.149      0.598     0.081      0.357     0.135      0.591     0.099 
#  13.050     0.361     0.151      0.619     0.087      0.353     0.135      0.607     0.100 
#  13.350     0.373     0.153      0.628     0.089      0.356     0.133      0.593     0.093 
#  13.650     0.367     0.155      0.628     0.083      0.347     0.132      0.613     0.103 
#  13.950     0.365     0.157      0.639     0.086      0.347     0.136      0.617     0.100 
#  14.250     0.365     0.161      0.642     0.082      0.346     0.130      0.612     0.108 
#  14.550     0.371     0.159      0.642     0.072      0.341     0.133      0.629     0.107 
#  14.850     0.367     0.160      0.657     0.079      0.341     0.129      0.647     0.081 
#  15.150     0.366     0.167      0.668     0.074      0.341     0.132      0.692     0.098 
#  15.450     0.366     0.166      0.688     0.076      0.341     0.132      0.675     0.072 
#  15.750     0.360     0.164      0.691     0.074      0.347     0.137      0.718     0.079 
#  16.050     0.356     0.166      0.700     0.065      0.342     0.139      0.685     0.070 
#  16.350     0.353     0.167      0.733     0.071      0.345     0.135      0.719     0.063 
#  16.650     0.347     0.163      0.722     0.066      0.351     0.138      0.730     0.079 
#  16.950     0.348     0.164      0.741     0.061      0.355     0.140      0.673     0.049 
#  17.250     0.350     0.170      0.753     0.072      0.347     0.135      0.736     0.069 
#  17.550     0.342     0.169      0.734     0.074      0.350     0.134      0.786     0.047 
#  17.850     0.341     0.168      0.734     0.055      0.344     0.133      0.691     0.068 
#  18.150     0.342     0.166      0.753     0.058      0.347     0.138      0.713     0.019 
#  18.450     0.338     0.166      0.746     0.059      0.351     0.137      0.722     0.051 
#  18.750     0.333     0.165      0.747     0.055      0.355     0.142      0.766     0.001 
#  19.050     0.332     0.166      0.776     0.052      0.357     0.138      0.756     0.068 
#  19.350     0.331     0.168      0.765     0.044      0.352     0.139      0.706     0.035 
#  19.650     0.330     0.167      0.766     0.055      0.364     0.139      0.714     0.030 
#  19.950     0.324     0.165      0.769     0.045      0.359     0.136      0.722     0.025 
#  20.250     0.327     0.169      0.800     0.043      0.362     0.139      0.756     0.005 
#  20.550     0.323     0.168      0.792     0.025      0.373     0.139      0.799     0.054 
#  20.850     0.318     0.164      0.805     0.039      0.372     0.143      0.750     0.145 
#  21.150     0.316     0.149      0.821     0.132      0.344     0.136      0.690     0.235 
