#Derived Basis Spectrum set for calculating CD spectra
#spectrum_list: /home/gnagy/Documents/Gottingen/IDPs/experiments/CD_test/arom/side_Avg6/BB_corr_scale/CD_corr_MP79.inp
#SS_list: /home/gnagy/Documents/Gottingen/IDPs/experiments/CD_test/arom/side_Avg6/Seq_MP79.inp
#Number of decomposed  spectra: 79

#Combination matrix for Structural Properties:
#Basis/     ALA       ASP       ASN       ARG       CYS       GLY       GLU       GLN       HIS       ILE       LEU       LYS       MET       PHE       PRO       SER       THR       TRP       TYR       VAL       
# Helix1 :  0.0000    0.0000    0.0000    1.0000    0.0000    0.0000    0.0000    0.0000    0.0000    1.0000    0.0000    0.0000    0.0000    0.0000    0.0000    1.0000    0.0000    1.0000    0.0000    0.0000  
# Beta1 :   0.0000    0.0000    0.0000    0.0000    0.0000    0.0000    0.0000    0.0000    1.0000    0.0000    0.0000    0.0000    0.0000    1.0000    0.0000    0.0000    0.0000    0.0000    1.0000    0.0000  
# Helix2 :  0.0000    0.0000    0.0000    0.0000    0.0000    0.0000    1.0000    0.0000    0.0000    0.0000    1.0000    0.0000    0.0000    0.0000    0.0000    0.0000    0.0000    0.0000    0.0000    0.0000  
# Turn1 :   0.0000    1.0000    0.0000    0.0000    1.0000    0.0000    0.0000    1.0000    0.0000    0.0000    0.0000    0.0000    0.0000    0.0000    0.0000    0.0000    0.0000    0.0000    0.0000    0.0000  
# Turn2 :   1.0000    0.0000    1.0000    0.0000    0.0000    0.0000    0.0000    0.0000    0.0000    0.0000    0.0000    0.0000    0.0000    0.0000    1.0000    0.0000    1.0000    0.0000    0.0000    0.0000  
# Other :   0.0000    0.0000    0.0000    0.0000    0.0000    1.0000    0.0000    0.0000    0.0000    0.0000    0.0000    1.0000    1.0000    0.0000    0.0000    0.0000    0.0000    0.0000    0.0000    1.0000  


#|  Wavelength      Helix1         Beta1          Helix2         Turn1          Turn2          Other           
#      nm        T (10^3)       T (10^3)       T (10^3)       T (10^3)       T (10^3)       T (10^3)      
     269.0        0.2125         -0.4080         -0.0544         0.1555         -0.2809         0.2227      
     268.0        0.1776         -0.5704         0.2757         0.1495         -0.3228         0.1540      
     267.0        0.0156         -0.1900         0.0298         0.0600         -0.0546         0.0226      
     266.0        -0.0379         -0.1269         -0.0001         -0.1049         0.1197         -0.0462      
     265.0        0.0607         -0.2564         0.0083         -0.1948         0.1458         -0.0234      
     264.0        0.0761         -0.2280         0.0818         -0.1618         0.0361         0.0118      
     263.0        0.0259         -0.1471         0.0464         -0.0401         -0.0515         0.0861      
     262.0        0.0194         -0.1297         0.0632         -0.1467         0.0080         0.0411      
     261.0        -0.0243         0.0731         0.0057         -0.1507         0.0635         -0.0501      
     260.0        0.0163         0.0059         0.1919         -0.0971         0.0336         -0.1690      
     259.0        0.0633         -0.1681         0.2384         0.1521         -0.0657         -0.1857      
     258.0        -0.0713         -0.1153         0.2578         0.2715         -0.0539         -0.1811      
     257.0        -0.1751         -0.0917         0.1700         0.3544         -0.0491         -0.1284      
     256.0        -0.2198         -0.0913         0.1670         0.2320         -0.0597         -0.0277      
     255.0        -0.3589         0.1397         0.1522         0.1641         -0.0155         -0.0262      
     254.0        -0.3639         0.1013         0.3418         0.2414         -0.0652         -0.0959      
     253.0        -0.3646         0.1052         0.2485         0.4067         -0.0657         -0.1143      
     252.0        -0.3962         0.1436         0.1805         0.3839         0.0189         -0.1304      
     251.0        -0.3348         0.0246         0.1541         0.2759         0.0884         -0.1728      
     250.0        -0.3061         -0.0364         0.2167         0.1698         0.0228         -0.0778      
     249.0        -0.3417         -0.0864         0.2645         0.2165         0.0065         -0.0452      
     248.0        -0.3276         -0.2545         0.2674         0.3376         0.0193         -0.0070      
     247.0        -0.3143         -0.3587         0.2382         0.4552         0.0088         0.0582      
     246.0        -0.3300         -0.2726         0.1911         0.3491         0.0069         0.1474      
     245.0        -0.3613         -0.0969         0.0739         0.2038         0.0251         0.2421      
     244.0        -0.2867         -0.2125         0.1462         0.0831         -0.0418         0.3741      
     243.0        -0.2540         -0.0794         0.0756         -0.1008         -0.0090         0.4706      
     242.0        -0.2708         0.1546         -0.0723         -0.0520         0.0467         0.4558      
     241.0        -0.1836         0.2936         0.0142         -0.0319         -0.0108         0.3870      
     240.0        -0.1928         0.5851         0.0569         -0.1122         -0.0429         0.3229      
     239.0        -0.2453         0.8500         -0.0905         -0.1850         0.0127         0.3498      
     238.0        -0.1605         0.9345         -0.0717         -0.2255         -0.0403         0.3877      
     237.0        -0.0870         1.4281         -0.2372         -0.5772         -0.0511         0.5199      
     236.0        0.0627         1.8686         -0.3492         -0.7312         -0.1322         0.5537      
     235.0        0.2695         2.0903         -0.2476         -0.8857         -0.2742         0.6347      
     234.0        0.5095         2.3313         -0.1441         -1.1340         -0.3906         0.6533      
     233.0        0.6777         2.6418         -0.1852         -1.3361         -0.4945         0.7939      
     232.0        0.9333         3.0547         -0.2624         -1.5011         -0.6520         0.8839      
     231.0        1.2993         3.7037         -0.4492         -1.8672         -0.8737         1.0306      
     230.0        1.6320         4.2808         -0.8223         -1.9634         -1.0919         1.2300      
     229.0        2.2352         4.6687         -1.1334         -2.1381         -1.4373         1.4842      
     228.0        2.8534         4.9760         -1.3593         -2.3866         -1.8203         1.8025      
     227.0        3.3414         5.2745         -1.5907         -2.5134         -2.2439         2.2155      
     226.0        3.7543         5.5052         -1.7591         -2.6228         -2.6006         2.5792      
     225.0        3.9402         5.9025         -1.8834         -2.6567         -3.0130         3.0759      
     224.0        4.0199         6.0941         -1.9509         -2.5628         -3.3469         3.5775      
     223.0        3.9481         6.4107         -1.8709         -2.4591         -3.7462         4.0892      
     222.0        3.7353         6.7874         -1.5549         -2.4264         -4.2103         4.6212      
     221.0        3.4204         7.1483         -1.2564         -2.2611         -4.7443         5.2092      
     220.0        3.1314         7.3453         -0.9557         -2.0825         -5.2612         5.7772      
     219.0        2.7436         7.8039         -0.7659         -1.9184         -5.7850         6.3996      
     218.0        2.3177         8.1704         -0.3901         -1.6280         -6.3359         6.9206      
     217.0        1.7749         8.7385         -0.1280         -1.4675         -6.7155         7.3579      
     216.0        1.2104         9.0184         0.2357         -1.3469         -6.9853         7.7225      
     215.0        0.7789         9.0774         0.4137         -1.2890         -7.1667         8.1085      
     214.0        0.3358         9.3470         0.5363         -1.4058         -7.2684         8.3326      
     213.0        -0.1272         9.8909         0.5605         -1.6507         -7.3704         8.5872      
     212.0        -0.5112         10.5851         0.5869         -1.9021         -7.5754         8.8002      
     211.0        -0.7926         11.5567         0.4596         -2.2430         -7.8875         9.0332      
     210.0        -1.1002         12.8215         0.0742         -2.5870         -8.2103         9.2951      
     209.0        -1.3364         14.3327         -0.6559         -2.9795         -8.5794         9.6155      
     208.0        -1.5737         16.1616         -1.5381         -3.5387         -8.9779         9.9053      
     207.0        -1.8935         18.4248         -2.6352         -4.2839         -9.3560         10.2128      
     206.0        -2.1428         20.8037         -3.8721         -5.0554         -9.8439         10.5639      
     205.0        -2.3040         23.5310         -5.2360         -5.8367         -10.3753         10.7315      
     204.0        -2.4534         26.7874         -6.6740         -6.4261         -10.9603         10.6342      
     203.0        -2.6693         30.1495         -8.0063         -6.6199         -11.5560         10.2688      
     202.0        -2.8923         33.6857         -9.1527         -6.4045         -12.4798         9.7332      
     201.0        -3.2354         36.7916         -10.0219         -5.8231         -13.3677         8.9718      
     200.0        -3.5805         38.6607         -10.4358         -4.9267         -14.2423         8.2279      
     199.0        -3.9448         39.3169         -10.5895         -3.8037         -15.0626         7.6515      
     198.0        -4.2604         38.9564         -10.3384         -2.7192         -15.7211         7.2808      
     197.0        -4.5563         37.2033         -9.8606         -1.5000         -16.0137         7.2130      
     196.0        -4.4598         34.6232         -9.1846         -0.2379         -16.2895         7.2447      
     195.0        -4.0082         30.3486         -8.1666         1.3195         -16.3169         7.2902      
     194.0        -2.8889         24.0196         -6.5953         3.0514         -15.9289         7.0030      
     193.0        -1.4002         16.5493         -4.8622         4.6636         -15.1553         6.6018      
     192.0        0.0451         8.2410         -2.5803         6.0537         -13.8410         5.9129      
     191.0        1.7395         -0.5632         -0.3604         7.2365         -12.2797         5.2298      
     190.0        3.3196         -8.9102         1.9201         7.9915         -10.5553         4.5709      
     189.0        4.5254         -16.5892         3.4997         8.7371         -8.5272         4.0340      
     188.0        5.7928         -23.6794         4.7403         9.1959         -6.3552         3.5641      
     187.0        6.7145         -28.8534         5.5709         8.8738         -4.1297         3.2713      
     186.0        7.3940         -32.5232         5.8840         8.4372         -1.9757         2.9928      
     185.0        8.1478         -34.2541         5.3269         7.8494         -0.4022         3.0446      
     184.0        8.3709         -34.3642         4.0497         7.1905         1.1022         3.4465      
     183.0        8.2634         -32.7102         1.8567         6.8084         2.2898         4.0285      
     182.0        8.3403         -30.1900         -0.3639         6.2821         3.2808         4.3504      
     181.0        8.2750         -26.9431         -2.2422         5.6236         3.8224         4.6738      
     180.0        8.0898         -23.3327         -3.9884         4.9180         4.1764         4.9419      
     179.0        7.7677         -19.5573         -6.0235         4.9431         4.1032         5.3305      
     178.0        6.8314         -15.9567         -8.1864         5.0056         4.4181         5.9763      
